#  
#   VizieR Astronomical Server vizier.cfa.harvard.edu
#    Date: 2017-01-25T16:10:03 [V1.99+ (14-Oct-2013)]
#   In case of problem, please report to: cds-question@unistra.fr
# 
#   
#Coosys J2000: eq_FK5 J2000 
#INFO votable-version=1.99+ (14-Oct-2013) 
#INFO -ref=VIZ5888cd262130 
#INFO -out.max=unlimited 
#INFO queryParameters=8 
#-oc.form=sexa
#-out.max=unlimited
#-nav=cat:J/A+A/555/A78&tab:{J/A+A/555/A78/table1}&key:source=J/A+A/555/A78/table1&HTTPPRM:&
#-source=J/A+A/555/A78/table1
#-order=I
#-out=lam.1
#-out=lamb.2
#-out=Flux
#
#RESOURCE=yCat_35550078
#Name: J/A+A/555/A78
#Title: High-resolution IR airglow spectrum (Oliva+, 2013)
#Table J_A_A_555_A78_table1:
#Name: J/A+A/555/A78/table1
#Title: *OH airglow line wavelengths
#---Details of Columns:
#    lam.1 (0.1nm)  (F9.3)  [9722/22750] Vacuum wavelength of first line of the OH doublet ({AA}) [ucd=em.wl]
#    lamb.2 (0.1nm) (F9.3)  [9722/22750] Vacuum wavelength of second line of the OH doublet ({AA}) [ucd=em.wl]
#    Flux           (I4)    Relative line photon flux of the doublet [ucd=phot.flux;arith.ratio]
#--------- --------- ----
#lam.      lamb.         
#1 (0.1nm) 2 (0.1nm) Flux
#--------- --------- ----
 9722.546  9722.448   18
 9740.794  9740.726    9
 9851.125  9851.245   16
 9874.767  9874.921   38
 9897.437  9897.479   11
 9917.249  9917.533   41
 9948.022  9947.957   11
 9959.328  9959.286   21
 9964.447  9964.877   23
 9975.087  9975.079    6
10002.832 10002.642   10
10015.583 10015.527   44
10063.407 10063.538   14
10085.175 10085.288   38
10106.324 10106.425   14
10126.670 10126.898   51
10174.990 10174.806   19
10183.784 10183.868    9
10192.575 10192.425   31
10205.839 10205.849   12
10211.608 10211.545   12
10213.900 10213.802   41
10228.311 10228.862   12
10233.499 10233.428   12
10289.505 10289.409  110
10299.021 10298.670   37
10350.063 10350.193   23
10375.641 10375.799   86
10399.361 10399.413   32
10421.071 10421.366   92
10453.395 10453.335   21
10471.604 10472.056   57
10512.107 10511.916   11
10527.345 10527.969   29
10700.140 10699.948    7
10713.770 10713.589   22
10723.304 10723.396   10
10731.788 10731.640   45
10746.145 10746.159   16
10753.969 10753.871   56
10775.094 10775.024   12
10832.411 10832.103   15
10834.338 10834.241  161
10844.871 10844.514   56
10860.033 10859.222   15
10898.609 10898.751   31
10926.348 10926.511  115
10951.316 10951.381   39
10975.177 10975.484  120
11009.318 11009.269   26
11029.577 11030.053   72
11072.551 11072.363   12
11089.688 11090.349   33
11312.937 11312.764   26
11323.318 11323.415   14
11331.266 11331.121   42
11439.989 11439.891  124
11451.787 11451.422   39
11538.706 11538.876   93
11591.523 11591.847   91
11627.867 11627.826   32
11650.492 11651.000   61
11696.442 11696.254   18
11715.795 11716.506   36
11771.004 11770.650    6
11787.563 11788.495   14
11983.237 11983.411    5
11988.729 11988.565   26
12000.086 12000.197   14
12007.149 12007.008   56
12024.233 12024.259   21
12030.932 12030.837   62
12055.912 12055.843   22
12120.556 12120.218   12
12122.690 12122.591  166
12136.107 12135.738   62
12155.358 12154.512   13
12196.299 12196.471   37
12229.206 12229.381  142
12257.680 12257.777   53
12286.820 12287.159  157
12325.925 12325.901   41
12351.329 12351.866  102
12400.967 12400.789   24
12422.967 12423.727   52
12482.885 12482.530   13
12501.915 12502.919   19
12571.855 12571.304    5
12588.345 12589.613    8
12748.001 12747.917   11
12752.864 12752.732   31
12760.892 12761.093   10
12764.492 12764.343  179
12777.032 12777.167   22
12782.634 12782.500  165
12801.522 12801.565   31
12807.030 12806.937  120
12834.593 12834.535   34
12903.707 12903.358   23
12905.761 12905.661  256
12921.319 12920.945   77
12943.607 12942.746   26
12985.550 12985.742   53
13021.544 13021.726  188
13052.678 13052.801   71
13085.086 13085.443  206
13127.821 13127.823   59
13156.506 13157.079   64
13210.926 13210.769   31
13236.106 13236.927   88
14833.285 14832.903  205
14864.398 14864.398   59
14886.507 14885.824   12
14887.819 14887.579  276
14908.278 14909.776   32
14931.971 14931.795  114
15025.142 15026.969    5
15053.190 15052.540   80
15055.657 15055.442  841
15064.542 15063.455   25
15069.360 15068.575  274
15082.841 15081.669    6
15089.161 15087.391   63
15107.805 15106.959    4
15115.312 15112.139   16
15187.009 15187.271  158
15240.788 15241.120  712
15287.747 15287.831  203
15332.099 15332.705  729
15395.411 15395.258  153
15431.702 15432.613  406
15462.443 15461.807   11
15473.986 15474.439    8
15501.158 15500.571   44
15509.979 15509.559   84
15517.706 15518.039   26
15539.711 15540.945  198
15546.392 15545.890  123
15570.070 15570.249   61
15597.824 15597.439  263
15631.677 15630.972   67
15631.562 15631.560   67
15655.074 15654.833  343
15656.177 15657.749   61
15702.631 15702.447   96
15760.831 15759.827    9
15781.163 15783.090   15
15830.675 15829.995   89
15833.381 15833.165 1000
15843.076 15841.930   35
15848.459 15847.662  325
15863.115 15861.863   10
15870.210 15868.404   93
15897.794 15896.476   12
15898.914 15895.662   16
15914.773 15917.072    5
15972.456 15972.738  217
16030.661 16031.002  759
16057.155 16059.850    7
16079.701 16079.804  262
16128.294 16128.923  799
16194.686 16194.544  193
16234.899 16235.854  500
16246.367 16245.772    7
16252.431 16253.038    4
16270.627 16270.010   11
16279.449 16280.005    4
16302.584 16301.973   15
16315.279 16315.752    9
16317.374 16316.949   96
16342.041 16341.470   41
16350.651 16351.954  207
16359.060 16356.690    6
16360.209 16360.561   21
16369.059 16372.618    7
16388.740 16388.245  117
16414.641 16414.835   50
16442.346 16441.964  245
16447.981 16447.253   39
16475.648 16477.319   80
16479.059 16479.065   93
16502.485 16502.245  327
16553.907 16553.723  107
16586.848 16585.798   15
16609.994 16612.052   25
16689.558 16688.846   84
16692.490 16692.270  854
16703.242 16702.035   23
16709.258 16708.445  290
16718.914 16723.436   10
16725.407 16724.073    5
16733.405 16731.555   81
16734.354 16732.965    9
16753.832 16756.299    3
16755.756 16754.736   10
16765.246 16761.899   23
16840.325 16840.636  116
16890.892 16889.145    8
16903.502 16903.857  687
16907.350 16910.250   13
16908.877 16913.912   10
16955.012 16955.145  238
17008.426 17009.087  692
17056.858 17054.733    6
17070.789 17074.147    9
17078.430 17078.309  173
17109.370 17114.928    9
17123.152 17124.166  445
17175.355 17174.899    7
17189.235 17188.696    9
17210.529 17210.109   87
17211.958 17211.371    6
17243.338 17242.741   15
17247.926 17249.321  205
17257.360 17257.853   13
17283.151 17282.584   44
17303.187 17303.553   21
17331.117 17330.621   10
17351.525 17350.779   42
17359.587 17359.787   47
17382.907 17384.705   80
17386.887 17386.504  214
17418.706 17415.758    5
17427.043 17427.047   85
17428.610 17432.965   10
17450.087 17449.846  244
17501.775 17500.681   16
17505.994 17505.801   85
17528.254 17530.474   26
17541.515 17536.573    5
17543.701 17550.297    7
17650.227 17649.480   68
17653.333 17653.111  622
17665.519 17664.243   19
17672.224 17671.400  196
17684.161 17686.826   12
17690.349 17688.922    8
17699.386 17697.499   31
17724.421 17723.298    3
17735.169 17731.742   11
17779.850 17774.412    6
17811.307 17811.642   15
17823.338 17819.490    6
17831.728 17829.880    9
17830.122 17835.564    7
17850.874 17854.007    6
17880.118 17880.481  456
17993.620 17994.304  382
18067.987 18067.882   28
19560.004 19562.060   21
19618.495 19618.954   17
19642.698 19642.237   49
19677.859 19678.136   18
19699.527 19698.347   14
19702.267 19701.898   84
19734.919 19737.499   33
19751.486 19751.543  100
19771.980 19771.744  137
19774.061 19780.072    8
19839.814 19839.643   54
20005.417 20004.611   21
20008.276 20008.051  280
20033.634 20032.788   72
20069.974 20068.017   10
20193.020 20193.434   43
20275.646 20276.033  241
20320.599 20318.028    7
20339.372 20339.623  110
20343.553 20347.960    9
20412.304 20413.054   41
20499.371 20499.358    0
20562.953 20564.143  219
20673.021 20672.668   14
20728.171 20729.859  135
20807.364 20803.671    5
20824.588 20830.495   12
20860.621 20859.871   34
20875.692 20885.483    6
20908.450 20910.685   65
21089.760 21096.527   10
21096.316 21096.889    8
21104.276 21107.104   27
21116.060 21115.653   49
21155.925 21156.307   20
21176.727 21176.387   70
21194.919 21205.938    5
21232.354 21232.494   30
21249.706 21249.481   95
21279.892 21278.218   16
21316.180 21319.652   18
21326.033 21325.914   26
21372.519 21380.238    9
21505.452 21504.638   20
21507.422 21507.196  211
21513.007 21510.804    5
21537.948 21537.098   85
21710.932 21711.408   52
21790.783 21795.718    7
21802.112 21802.515  168
21873.347 21873.690   66
21955.240 21956.036  190
22052.320 22052.412   60
22124.874 22126.160  158
22311.800 22313.651   78
22460.602 22459.926   24
22516.726 22519.211   40
22690.982 22689.823    9
22740.375 22743.555   20
